Sample File	C:\Users\vancelab\Desktop\Chamber\Raw data\Chamber_Water_SMPS_FreshSmoke_MRH_20230418.S80
Classifier Model	3080
DMA Model	3081
DMA Inner Radius(cm)	0.00937
DMA Outer Radius(cm)	0.01961
DMA Characteristic Length(cm)	0.44369
CPC Model	3788 High Flow
Reference Gas Viscosity (Pa*s)	1.83245e-005
Reference Mean Free Path (m)	6.73e-008
Reference Gas Temperature (K)	296.15
Reference Gas Pressure (kPa)	101.3
Channels/Decade	64
Multiple Charge Correction	TRUE
Nanoparticle Aggregate Mobility Analysis	FALSE
Diffusion Correction	TRUE
Gas Density	0.0012
Units	dw/dlogDp
Weight	Number
Sample #	1	2	3	4	5	6	7	8	9	10	11	12	13	14	15	16	17	18	19	20	21	22	23	24	25	26	27	28	29	30	31	32	33	34	35	36	37	38	39	40	41	42	43	44	45	46	47	48	49	50	51	52	53	54	55	56	57	58	59	60	61	62	63	64	65	66	67	68	69	70	71	72	73	74
Date	04/18/23	04/18/23	04/18/23	04/18/23	04/18/23	04/18/23	04/18/23	04/18/23	04/18/23	04/18/23	04/18/23	04/18/23	04/18/23	04/18/23	04/18/23	04/18/23	04/18/23	04/18/23	04/18/23	04/18/23	04/18/23	04/18/23	04/18/23	04/18/23	04/18/23	04/18/23	04/18/23	04/18/23	04/18/23	04/18/23	04/18/23	04/18/23	04/18/23	04/18/23	04/18/23	04/18/23	04/18/23	04/18/23	04/18/23	04/18/23	04/18/23	04/18/23	04/18/23	04/18/23	04/18/23	04/18/23	04/18/23	04/18/23	04/18/23	04/18/23	04/18/23	04/18/23	04/18/23	04/18/23	04/18/23	04/18/23	04/18/23	04/18/23	04/18/23	04/18/23	04/18/23	04/18/23	04/18/23	04/18/23	04/18/23	04/18/23	04/18/23	04/18/23	04/18/23	04/18/23	04/18/23	04/18/23	04/18/23	04/18/23
Start Time	16:09:00	16:12:00	16:15:01	16:18:00	16:21:01	16:24:00	16:27:01	16:30:00	16:33:00	16:36:00	16:39:00	16:42:00	16:45:00	16:48:00	16:51:00	16:54:00	16:57:00	17:00:00	17:03:00	17:06:00	17:09:00	17:12:00	17:15:00	17:18:00	17:21:00	17:24:00	17:27:00	17:30:00	17:33:00	17:36:00	17:39:00	17:42:00	17:45:00	17:48:00	17:51:00	17:54:00	17:57:00	18:00:00	18:03:00	18:06:00	18:09:00	18:12:00	18:15:00	18:18:00	18:21:00	18:24:00	18:27:00	18:30:00	18:33:00	18:36:00	18:39:00	18:42:00	18:45:00	18:48:00	18:51:00	18:54:00	18:57:00	19:00:00	19:03:00	19:06:00	19:09:00	19:12:00	19:15:00	19:18:00	19:21:00	19:24:00	19:27:00	19:30:00	19:33:00	19:36:00	19:39:00	19:42:00	19:45:00	19:48:00
Diameter Midpoint
 16.3	0	0	9239.41	2351.76	1076.15	247.64	106.148	96.2408	35.3885	35.3677	0	0	0	0	34.9439	0	0	0	0	0	0	0	0	0	0	0	0	0	0	0	0	0	0	0	0	0	0	0	0	0	0	0	0	0	0	0	0	0	0	0	0	0	0	0	0	0	0	0	0	0	0	0	0	0	0	0	0	0	0	0	0	0	0	0
 16.8	0	0	9486.43	3489.25	948.292	453.077	343.877	164.687	155.421	33.0698	0	33.0782	0	0	0	33.0868	33.0937	0	0	0	0	0	0	0	33.0765	0	0	0	0	0	0	0	0	0	0	0	0	0	0	0	0	0	0	0	0	0	0	0	0	0	0	0	0	0	0	0	0	0	0	0	0	0	0	0	0	0	0	0	0	0	0	0	0	0
 17.5	0	0	11086.8	3485.54	1238.24	536.564	266.904	257.536	102.452	93.0077	62.0417	62.0204	93.0764	62.0052	31.0224	31.0178	31.024	0	31.0011	0	0	0	30.9995	0	0	0	0	0	31.0148	0	0	0	0	0	0	0	0	0	0	0	0	0	0	0	0	0	30.992	0	0	0	0	0	0	0	0	0	0	0	0	0	0	0	0	0	0	0	0	0	0	0	0	0	0	0
 18.1	0	0	12369.9	3932.34	1388.51	912.192	436.648	213.703	116.456	9.90986	58.2307	39.018	29.1195	87.2969	87.3502	0	58.2362	29.1044	0	29.0949	0	0	0	0	0	0	0	29.1058	0	0	0	0	0	0	0	0	0	0	0	0	0	0	0	0	0	0	0	0	0	0	0	0	0	0	0	0	0	0	0	0	0	0	0	0	0	0	0	0	0	0	0	0	0	0
 18.8	0	0	12499.7	4053.8	1850.72	921.761	510.684	307.953	281.913	127.57	109.574	100.213	109.589	54.7575	109.579	0	0	0	0	0	0	0	0	0	0	0	0	0	0	0	0	0	0	0	0	0	0	0	0	0	0	0	0	0	0	0	0	0	0	0	0	0	0	0	0	0	0	0	0	0	0	0	0	0	0	0	0	0	0	0	0	0	0	0
 19.5	0	0	13321.5	4784.86	2041.42	1156.04	547.758	320.34	276.278	154.729	51.6028	25.7937	51.6094	25.7881	51.605	103.197	0	0	0	0	25.7992	0	0	0	25.7926	0	0	0	0	25.798	25.7903	0	0	0	0	0	0	0	0	0	0	0	0	0	0	0	0	0	0	0	0	0	0	0	0	0	0	0	0	0	0	0	0	0	0	0	0	0	0	0	0	0	0	0
 20.2	0	0	14755.4	5098.39	1935.63	1622.98	908.318	399.991	443.275	253.929	175.683	108.054	97.3242	78.3319	24.329	97.3042	24.33	24.32	0	0	0	72.9544	24.3142	0	24.3201	0	0	0	0	0	0	48.6281	0	0	0	0	0	0	0	0	0	0	24.319	0	0	0	0	0	0	0	0	0	0	0	0	0	0	0	0	0	0	0	0	0	0	0	0	0	0	0	0	0	0	0
 20.9	0	0	15430.4	6028.64	2597.68	1620.21	886.717	600.269	475.702	246.183	167.222	130.597	86.9225	56.263	81.6758	68.0099	79.8295	15.534	26.9689	13.8054	0	0	0	18.2316	0	0	0	0	21.3569	0	0	0	21.8223	21.9832	0	0	0	0	0	0	0	0	0	0	0	0	0	0	0	0	0	0	0	0	0	0	0	0	0	0	0	0	0	0	0	0	0	0	0	0	0	0	0	0
 21.7	0	0	16630	6516.27	2598.73	1634.07	856.163	818.911	554.18	265.724	186.912	100.977	120.132	12.0581	171.354	37.1615	53.2398	94.3845	21.1902	33.3876	37.2549	57.113	0	0	0	0	0	17.3524	0	0	0	20.2084	0	0	0	21.2608	0	0	0	0	0	0	0	0	0	20.0746	0	21.1225	0	0	0	0	0	0	0	0	0	0	0	0	0	0	21.5284	0	0	0	0	0	0	0	0	0	0	0
 22.5	0	0	18677.5	7792.27	4178.47	2123.06	1356.56	987.185	918.782	386.296	442.422	141.891	353.909	258.798	61.5891	161.146	82.6763	65.5446	126.748	51.6106	11.1321	31.841	31.9651	13.2191	35.8428	33.6053	14.5164	0	0	0	18.1957	15.804	0	18.7131	17.4866	0	17.9102	0	0	0	0	0	0	40.3754	0	0	0	0	0	0	0	0	0	0	0	0	0	0	0	0	0	0	0	0	0	0	0	0	0	0	0	0	0	0
 23.3	0	0	19789.2	8345.68	4317.19	2333.07	1501.75	1068.48	826.544	593.842	365.937	391.225	330.439	152.994	178.312	110.947	9.24484	116.45	140.175	80.9426	87.9521	44.8119	0	41.05	10.9625	69.8747	15.1311	51.4034	17.3591	36.783	0	33.5747	14.5897	17.4491	0	0	36.4484	0	0	0	17.1334	0	17.6774	3.87021	18.8008	0	0	0	0	18.319	18.6041	0	0	18.7916	0	0	0	0	0	0	0	0	0	0	0	0	19.2287	0	0	0	0	0	0	0
 24.1	0	0	20078.7	8869.2	4452.29	2799	1840.06	1115.72	1090.09	646.085	429.773	436.466	456.511	248.126	212.354	240.529	90.508	77.1332	145.615	153.804	64.1494	18.5397	144.778	1.43156	6.93475	10.3623	40.7946	24.6858	97.2634	44.187	0	30.8257	0	14.9355	0	0	13.2874	16.335	32.9493	0	17.541	15.3876	0	11.5809	17.1012	0	0	0	0	0	0	17.2517	0	0	0	18.1837	17.4135	0	0	17.25	0	0	0	0	16.9883	0	18.1796	0	0	0	16.8922	0	18.0254	0
 25.0	0	0	21793.7	9887.81	5182.67	3928.2	1978.67	1480.53	1437.58	977.97	835.507	422.093	424.777	477.266	239.118	214.384	145.433	186.334	148.108	113.075	60.8071	93.4169	219.52	22.5242	0	69.5339	18.5176	0.228763	52.4842	22.0805	42.3849	20.086	0	62.3323	0	13.4209	5.93008	63.9652	0	30.4696	15.1843	0	0	32.6634	32.2796	0	0	0	0	0	27.3295	8.14119	16.371	16.0285	0	0	10.6002	0	0	0	33.2446	0	16.8594	9.93514	0	0	0	15.9934	10.1404	0	0	0	0	0
 25.9	0	0	22861.6	11302	5584.75	4224.29	2715.16	2185.29	1682.98	1128.8	870.72	547.407	510.291	688.561	406.873	434.837	269.194	209.195	210.779	163.009	118.601	81.9175	114.712	95.3458	54.4794	72.3737	93.0116	91.5889	52.9658	60.4177	19.8365	0	8.32495	6.63514	19.5224	0	15.5116	9.55202	28.3812	0	28.5691	0	0	29.4209	12.4653	12.8752	11.9102	15.6071	0	13.4664	35.312	36.7188	15.158	0	14.238	14.3476	20.4916	0	14.4803	0	0	15.5148	15.117	4.85579	0	0	0	15.6561	4.72322	0	0	0	16.2626	0
 26.9	0	0	25279.5	12194.6	7016.17	5101.32	2853.4	2591.61	1946.49	1424.72	1194.82	1038.76	710.642	521.763	431.852	498.51	444.652	361.501	184.615	186.738	54.4959	140.42	169.193	170.387	92.8227	20.868	88.789	24.9747	60.9096	41.0248	11.5798	92.9647	66.0107	14.9976	36.8413	37.7504	22.1365	22.6522	21.7929	24.4129	26.0336	0	25.6772	9.7819	12.7287	42.6555	26.4539	29.264	12.4143	13.3907	14.9269	0	0	0	0	0	13.7646	0	0	45.5814	0	0	0	13.7105	0	14.8415	0	0	0	14.0241	0	0	0	0
 27.9	0	0	26763.8	14326.8	7545.3	5451.8	4484.54	3132.06	2687.4	1806.45	1350.28	1048.84	855.147	745.155	721.482	509.907	509.559	490.532	201.587	148.999	164.223	131.685	274.109	68.906	155	144.468	103.877	163.801	81.5968	51.1701	46.8431	100.121	42.0202	108.87	13.7327	0	0	45.2603	33.3172	36.8928	21.5495	0	20.3705	23.045	41.1439	0	99.5658	0	23.8576	0	10.8906	10.4664	24.6318	10.805	0	14.1422	0	0	0	0	12.2826	10.6784	0	28.393	0	14.6584	0	0	13.5774	27.6916	0	0	13.1965	0
 28.9	0	0	30603.3	14055.8	9013.52	7079.47	5076.25	3408.3	2682.93	2259.47	1639.02	1311.67	1152.67	948.14	701.618	742.477	650.251	321.563	425.155	330.886	312.594	324.562	206.978	157.912	222.736	122.583	243.84	168.131	161.398	147.143	181.705	63.5083	89.3447	46.2594	69.4845	38.3055	36.7733	54.7453	54.7078	0	67.6381	2.11944	13.8656	51.9025	20.5123	16.2885	45.1151	4.90613	20.9583	35.601	22.4112	24.6632	0	0	39.8021	4.63768	10.2301	0	37.3231	0	0	0	25.563	0	11.9882	0	28.1969	0	13.5229	0	0	0	11.5177	0
 30.0	0	0	30907.7	18592.4	10588.3	7742.71	5550.29	4287.02	3656	2364.59	1766.12	1553.29	1262.91	1462.94	793.134	945.986	937.201	578.238	564.57	712.489	375.134	401.91	258.882	367.767	305.096	252.579	150.069	135.719	124.866	120.497	153.799	95.338	88.1279	75.5924	167.614	122.669	30.7955	94.1312	98.2976	0	88.1236	37.9272	66.1663	35.6491	32.9865	78.1345	68.397	18.1181	3.46377	13.7976	17.4499	33.8908	25.9055	48.3291	0	19.9808	3.26621	21.2338	34.9654	23.1944	0	0	10.47	0	0	15.2848	24.0652	10.9435	0	13.1026	0	0	0	24.7046
 31.1	0	0	34018.4	20272.4	11431	9242.86	6538.51	4667.02	3635.57	3132.61	2655.66	1889.94	1341.05	1356.17	1149.47	1129.35	752.341	895.098	758.293	641.421	388.304	501.846	369.628	271.752	285.608	369.892	284.928	283.094	155.495	169.917	190.016	87.9228	176.714	95.4365	59.9886	14.958	82.0936	87.4008	28.103	41.8114	33.3975	0	79.4296	9.38073	70.111	97.7891	51.6763	27.205	48.6959	36.2975	41.97	17.886	39.3419	2.60809	19.8121	1.2074	18.9239	33.8902	0	5.55262	6.4827	19.3253	0	5.37333	7.99999	16.242	22.0608	10.4054	8.45491	10.596	11.5605	1.25666	0	29.8525
 32.2	0	0	35445	21195.9	12707.3	9669.22	7420.66	6426.42	4436.82	3653.86	2755.84	2457.13	1990.19	1531.55	1484.68	1319.97	1142.38	929.738	928.877	559.013	547.435	525.5	520.459	424.237	290.127	423.282	346.261	439.238	143.969	227.609	127.533	272.938	258.244	98.4146	173.072	85.5751	146.364	86.1614	139.541	109.932	61.6032	19.5744	45.6475	11.0331	21.9209	6.99655	28.7905	54.5236	79.2912	83.4661	24.6253	59.5584	16.4389	14.2685	82.54	27.1903	27.702	0	17.5299	1.0673	14.9555	18.4399	31.7216	30.1092	19.602	33.0813	7.33346	35.0206	18.9291	16.2897	9.5309	14.4524	9.39138	5.57
 33.4	0	0	37975.1	23234.7	13692.9	11752.3	7953.94	6885.44	4826.48	4407.04	3551.25	2651.23	2365.38	2356.76	1792.31	1492.66	1539.88	991.454	980.745	1041.74	674.626	687.917	634.783	886.913	437.92	387.248	217.526	341.449	325.258	319.106	234.88	263.908	246.839	97.509	84.0905	72.4138	112.939	128.761	105.044	151.701	114.569	74.1533	86.0256	28.9785	26.6769	91.5957	62.1126	18.7114	109.125	51.0139	36.9153	18.0508	35.2952	27.0153	29.6607	10.1315	42.9755	67.1631	0	45.3032	27.6258	13.0136	3.67549	17.2704	30.1255	1.96382	3.69136	5.88132	42.2305	25.7551	0	17.9604	3.43343	44.9415
 34.6	0	0	40530.3	24399	15475.5	13416	9254.69	7849.95	6714.23	5284.78	4635.56	3560.36	2897.88	2576.11	2261	1708.41	1733.45	1504.65	1038.67	1138.52	1077.18	829.246	902.686	779.514	519.564	359.875	649.23	546.645	382.285	301.015	274.77	255.813	270.673	151.047	193.965	193.439	231.248	85.6217	162.889	105.156	31.5666	133.842	138.34	125.059	51.9973	92.104	145.607	55.0478	72.7212	0	40.8982	44.5154	40.7587	8.90038	42.574	1.72488	38.5789	89.5346	7.61865	45.696	9.68486	45.382	2.11567	38.234	59.0164	10.9592	1.55072	58.8207	74.3213	28.9269	63.7606	15.8771	9.27634	2.47446
 35.9	0	0	44400.1	27049.1	17145.1	13898.2	11219.3	8116.97	7096.35	5624.64	4549.2	4203.94	3345.47	3250.93	2553.87	2705.7	1868.83	1634.33	1454.3	1537.17	1056.64	1168.59	974.392	969.9	869.029	714.246	672.356	715.364	435.203	519.158	401.002	615.285	201.489	294.359	227.423	149.794	208.28	226.873	243.997	178.945	87.6149	95.1382	50.6837	83.8528	99.537	118.829	115.199	90.3935	104.713	88.8371	43.0606	119.806	40.6754	54.8887	72.8839	20.3537	13.1862	3.01107	12.9715	50.1318	61.2013	29.6102	19.6985	43.5765	23.1809	20.4336	36.7614	57.6353	34.4208	24.714	0.153574	16.5013	14.9651	28.9905
 37.2	0	0	44635.4	29350.1	18358.1	16309.8	12469.6	10690.2	8250.81	6845.61	6008.49	5053.23	4396.95	4171.24	3218.38	2963.97	2676.31	1826.12	1915.66	1428.34	1747.92	1247.74	1159.95	858.52	1053.42	889.445	737.089	664.976	604.864	714.402	485.928	469.807	299.892	358.007	391.213	511.597	262.684	259.8	167.313	144.821	169.309	122.866	235.538	133.813	155.755	136.903	173.644	32.8865	128.222	118.129	25.2025	87.9873	49.0698	67.3703	87.2751	82.4321	80.5122	94.6909	76.6134	61.4796	59.8299	39.846	52.7047	43.9433	58.4091	45.1453	38.8264	34.9222	49.3579	2.11986	0	41.5471	11.1823	13.8039
 38.5	0	4207.77	47304	30738.2	20604.7	16645.7	14434	11365.2	8819	8147.56	6922.93	5673.55	5325.03	4548.72	3751.71	3555.91	3262.99	2326.95	1783.47	1722.47	1887.04	1621.39	1287.29	1248.83	1123.02	984.846	814.786	952.529	684.245	856.704	658.414	584.716	430.196	574.473	445.464	300.122	317.154	288.772	328.97	243.772	179.205	230.119	191.227	202.107	102.975	147.417	169.66	74.6555	108.334	65.0295	127.578	164.85	98.7766	105.845	71.4258	77.2391	63.9104	80.4027	86.7081	59.0359	195.772	19.602	70.7072	72.0131	14.7632	34.5047	8.96912	7.60278	69.1802	58.6356	21.4572	64.4845	0	64.1086
 40.0	0	23926.5	51807.9	33565.2	22469.9	18279.7	15187.9	12958.4	11556.8	9377.28	7637.63	6847.47	5489.44	5294.55	4607.67	4299.71	3845.34	2977.8	2593.04	2392.6	1910.74	1977.6	1695.49	1525.8	1237.13	1060.82	1054.85	919.5	766.806	701.557	854.108	718.257	537.055	369.714	554.486	627.977	334.083	449.984	345.041	225.852	291.838	185.579	303.153	207.562	109.672	317.914	218.96	130.148	185.031	160.191	121.253	142.302	166.736	130.314	151.61	72.7251	122.49	98.9355	123.977	90.3415	88.7491	138.645	34.3966	49.6568	60.128	7.74624	27.5542	76.9235	45.775	72.0211	0.666152	14.4099	51.4489	17.6321
 41.4	0	36078.2	51679	35310.9	25384.9	23029.3	17287	14241.7	12269.4	11131.9	9128.75	7832.99	6703.92	5694.56	5467.66	4663.48	4213.31	3407.53	2916.74	3089.48	2638.94	2250.65	1778.48	1978.36	1708.54	1319.63	1245.92	1253.26	1022.08	981.646	922.835	827.343	663.837	678.839	604.047	584.422	567.751	446.847	464.985	448.541	580.122	330.105	211.608	255.288	183.204	271.01	278.924	265.744	211.569	188.85	164.149	102.933	130.973	106.28	83.9166	221.693	92.2023	106.507	159.929	71.2016	25.9285	68.3029	89.3682	32.222	64.7258	30.7415	5.13186	35.0848	16.3136	44.154	100.511	36.8733	83.5914	64.7225
 42.9	0	60880.1	54058	39290	25397.4	24654.8	19783	16623.4	13789.5	12527	10418.5	8544.75	7887.02	7394.68	6133.27	5460.26	5101.5	4425.87	3532.48	3237.56	3074.61	2701.62	2148.35	2059.14	1898.37	1817.18	1750	1725.69	1212.1	1269.98	1000.08	918.476	1029.26	460.774	745.124	565.334	599.585	657.751	530.585	507.564	451.81	404.851	332.278	284.667	559.304	440.778	351.069	229.973	239.913	337.628	251.479	181.909	168.491	151.069	136.371	169.939	279.92	162.857	147.459	94.8757	123.023	150.001	70.418	112.568	71.2602	85.6367	79.9056	69.1683	72.4477	7.12492	31.8903	45.172	38.4782	65.3879
 44.5	0	50454.6	54432.7	38783.7	27918.9	26025.2	22333.3	18507.3	15696.7	14521.5	12261.6	11060.9	9553.41	8158.04	7306.75	5991.48	5225.13	4723.61	4386.34	3867.15	3698.84	2708.89	3071.89	2377.59	2721.48	1890.59	2229.63	1936.39	1522.19	1509.73	1588.91	788.042	921.521	801.585	859.83	866.71	634.084	579.625	610.925	510.583	393.406	541.028	443.134	443.277	483.037	456.749	293.305	252.932	376.767	373.948	241.417	164.713	160.126	211.023	164.612	284.645	160.115	99.1161	178.938	162.733	138.208	165.103	146.264	180.125	117.343	121.548	95.2215	65.6082	102.046	55.8645	32.1603	119.542	59.1191	68.9017
 46.1	0	49303.1	56815.5	41671.8	32134.2	28819.6	24789.5	19928.5	18043.3	14852.4	14505.7	11867.5	11176.9	9291.61	8602.34	7224.55	6801.98	5106.24	5155.07	4645.29	4225.26	3669.93	3158.75	3094.73	2802.49	2416.59	2419.34	1883.68	2109.9	1713.78	1361.49	1382.04	1023.11	944.23	978.518	856.872	862.603	834.954	756.006	749.883	687.418	644.928	632.754	553.136	592.274	523.514	465.214	423.468	458.865	363.904	244.054	340.506	330.1	408.87	241.082	220.961	211.724	267.706	147.352	236.248	231.172	127.343	121.07	169.701	121.228	80.6537	99.6887	45.3986	135.725	69.0785	54.7607	90.9517	68.8563	14.4419
 47.8	0	49682.1	58651.9	43280	30110.9	29505.2	27253.5	22670.1	20274.5	17273.4	16111.8	13419.8	12988.6	10775.8	10011	8020.97	7520.08	6760.23	5740.15	5374.59	5015.69	4345.55	4030.74	3554.24	3177.66	3202.29	2629.02	2389.77	2468.87	2133.11	1825.13	1611.78	1426.18	1229.97	1309.6	993.031	1186.69	980.607	887.574	769.82	804.82	673.286	630.869	615.168	638.474	561.203	413.739	543.414	440.035	376.708	432.867	334.476	336.596	232.231	343.906	237.028	219.143	191.371	227.667	273.812	147.413	212.737	163.867	129.265	105.131	188.153	162.735	121.17	116.911	67.7907	110.345	142.182	62.3829	55.1817
 49.6	0	27937.4	60511.7	46290.5	33236	33448.4	29735.7	25034.7	21769.1	20051.4	17908.1	14793.2	14279.2	13151.2	11597.4	9478.71	8994.41	7318.2	6710.74	6917.24	5423.99	5285.24	4815.62	4170.71	3615.07	3427.54	3455.11	3189.07	2631.59	2630.5	2722.78	1657.53	1987.94	1354.83	1238.25	1289.63	1197.04	1191.94	1004.25	980.964	936.486	887.468	827.167	825.858	708.877	629.515	505.125	690.75	519.247	557.721	535.164	420.786	430.858	480.601	424.742	406.96	338.019	257.877	268.451	355.161	237.004	226.221	158.792	145.888	164.037	227.358	161.342	114.823	110.831	91.5435	87.6816	28.6427	125.943	94.2372
 51.4	0	14648.5	60648	47100.3	35336.8	34829.4	31878	28774	23510.7	22449	20129	17099.1	16545.3	14378.6	12166	11071.1	9982.36	8545.24	8244.19	6326.07	6883.02	5579.59	5122.89	4878.76	4875.92	4222.26	4311.81	3836.25	3324.52	3067.87	2549.61	2726.2	2379.45	1706.79	2089.57	1695.66	1412.41	1442.79	1083.7	1212.14	1084.02	873.561	922.07	860.514	804.896	693.035	786.695	625.52	662.87	732.913	697.618	548.098	478.177	403.363	356.115	304.718	411.557	301.745	313.386	347.441	258.001	227.2	206.605	149.124	281.044	190.612	242.208	133.641	169.863	152.846	166.284	151.594	114.124	68.6954
 53.3	0	28040.7	60718.9	49770.8	35024.4	36381.5	34983.2	29960.7	26687.2	24085.8	22351.6	18468.7	18182.8	16307.3	14053.5	13094.4	11960.1	10275.4	9295.14	9491.01	7134.92	6925.82	6601.46	5606.88	5397.81	4768.47	4263.57	4252.98	3453.47	3294.09	2925.55	2574.26	2374.76	1930.16	1807.39	1700.62	1656.14	1492.62	1761.12	1464.21	1256.4	1131.57	984.142	1180.75	1046.43	851.931	852.883	973.383	714.085	753.674	739.945	478.777	554.331	531.705	262.872	424.99	365.361	367.005	408.586	321.582	328.207	302.8	284.805	348.201	310.029	283.832	263.436	209.458	156.56	113.911	226.409	190.014	138.986	91.8583
 55.2	0	36085.4	65279.3	49437.1	37988	39147.3	38087.6	32788.2	28811.3	28843.3	24702.8	21227.7	20597.3	17733.3	15955.6	13459.6	13131.1	11926.4	10523	9875.15	8852.79	7735.58	6913.98	6817.29	6166.93	5769.39	5045.77	4696.53	4387.9	3510.02	3825.53	3033	2706.51	2446.2	2712.76	2114.04	1909.96	1899.09	1718.74	1375.38	1383.86	1463.7	1402.74	1373.25	1108.12	1087.69	800.538	968.766	922.273	777.288	819.24	620.707	581.818	424.89	424.771	472.881	528.067	336.424	415.933	293.644	367.345	350.766	282.372	383.975	322.31	322.654	338.154	267.059	209.133	177.029	254.051	173.581	204.083	176.127
 57.3	0	49789.6	61258.4	51924	39379.1	41219.8	41388.6	36047.9	33307.8	29984.5	28782	23398.5	20672.2	20372.7	18374.8	14810.2	15961.8	13552.2	11755.7	11435.7	9843.55	9311.08	8591.92	7613.08	7244.86	6377.06	5732.46	5401.95	5046.51	4405.58	3398.93	3684.07	3356.6	2708	2517.21	2317.11	2394.41	2281.64	2032.24	1613.37	1558.75	1345.8	1517.2	1375.42	1504.42	1211.75	1297.45	1041.19	1006.27	948.05	840.524	812.548	802.324	623.586	610.802	610.985	624.585	586.851	472.961	408.974	310.416	382.657	372.669	249.756	501.044	349.708	250.983	345.362	320.083	229.484	150.934	255.05	203.372	150.059
 59.4	0	53239.5	61363.9	54788.6	44492.2	43471.5	42832.6	38494.2	32906.4	32530.9	31155.7	25165.6	24602.3	21823.3	20319.8	17901	16850.9	14687.1	13568.1	12433	11233.7	10265.3	10116.2	7699.58	8225.65	7208.16	6418.97	6521.24	6139.13	5154.19	4346.75	4278.88	3380.92	2964.98	2792.15	2719.44	2605.19	2573.03	2384.95	1741.78	1453.81	2038.91	1529.28	1498.91	1361.38	1202.07	1294.62	1272.86	1092.96	1035.05	1023.67	1015.04	880.033	623.174	812.798	635.931	615.32	596.292	499.901	503.669	610.176	498.203	418.683	458.509	383.318	332.44	382.176	212.691	311.181	245.618	222.865	292.474	355.951	186.538
 61.5	0	48101.3	58902.2	52549.1	40048.6	44975.1	45658.1	40975.2	36194.1	34336.2	32912.8	29733.3	27201.1	25101.3	22521.8	19296.1	18571.7	15996	15222	13181.7	12126.8	11681.9	10655.2	8970.01	8854.68	8796.49	7744.7	6616.66	6438.28	5902.57	5169.66	4264.1	4202.2	3284.84	3559.62	2978.46	2937.98	2676.01	2875.63	2042.91	2156.86	2120.97	1819.65	1667.05	1474.32	1450.45	1517.14	1378.57	1312.85	1173.86	1080.8	1038.87	1006.42	966.239	732.575	790.306	651.169	706.103	516.487	613.102	474.615	484.466	442.665	380.923	362.392	479.342	458.403	395.112	351.801	354.106	260.4	312.144	243.906	234.249
 63.8	0	44644.8	57965.6	53094.9	45800.7	48784.9	47343.1	42349.1	37582.5	37914.1	35186	29963.4	30215.5	27026.5	24176.3	20995.3	20158.8	18016	16529.6	15857	14464.5	12286.3	11586.2	10561.8	9891.92	8621.08	8496.69	7727.64	7168.31	6187.84	6139.37	5318.09	4684.61	3959.5	4352.98	3415.21	3516.89	3329.29	2992.94	2561.74	2612.36	2223.72	1997.9	1840.98	2094.19	1846.36	1562.93	1509.16	1422.62	1047.64	1359.08	1271.72	1020.95	1074.52	896.652	831.82	733.667	933.11	615.997	727.228	540.802	585.868	644.335	478.524	413.579	441.895	493.857	454.579	300.307	329.838	266.451	248.768	279.706	327.04
 66.1	0	41024.3	58629.3	53559.3	39302.9	47155.6	51809	44656.7	39573.7	41189.8	38526.4	33110.4	31216.2	29236.3	26573.9	22995.2	21684.4	20912.2	18568.2	17337.8	16228.9	14380.2	13379.5	11643.8	10911.3	9797.23	9058.69	8425.49	7837.04	7519.03	6443.85	5670.48	5141.6	4254.4	4321.44	3842.96	3600.03	3263.07	3466.02	2730.01	2774.46	2483.13	2304.33	2241.25	2127.76	1860.45	1774.04	1809.71	1616.22	1295.22	1463.22	1203.7	1110.2	1068.23	1082.6	975.152	883.718	872.835	729.592	639.023	513.857	634.165	579.514	526.831	456.54	419.975	421.293	465.933	392.614	461.588	341.191	324.512	402.019	315.071
 68.5	0	37361.1	57349.1	52477.1	41159.9	50451.5	53242.4	48264.3	42131.1	43486.4	40935.6	34842.4	33540.2	32731.8	30051.7	25642.3	24785.7	22214.1	19574.3	18833.6	17235.8	15845.2	13473.6	13260	12090.1	10764.2	9765.91	10420.3	8427.36	8154.83	7636.48	6345.07	5778.6	4830.15	5007.96	4486.32	3904.11	3641.56	3703.73	3295.69	2719.68	2670.53	2581.03	2314.33	2435.82	2448.86	1809.9	1933.82	1883.11	1791.12	1492.98	1423.48	1277.37	1158.92	1236.15	991.226	942.685	815.712	741.57	858.973	813.947	675.285	885.276	794.001	596.885	611.367	506.681	482.845	561.991	392.517	308.693	288.867	324.715	271.035
 71.0	0	36750.3	53328.7	49920.5	48890.9	48170.6	51535.5	49027.5	43999.9	43807.8	42987.5	37402.1	36279.9	33388.5	30548.9	27137.3	25123	23169.2	21045.7	19310.5	18190.1	15988.5	14659.9	13118.5	13129.3	11848.9	10854.1	10472.4	9782.47	8670.84	7564.43	6893.8	6092.31	5081.76	5344.24	4785.81	4149.39	4359.33	3810.55	3404.17	3001.13	2541.15	2949.79	2419.97	2599.88	2217.19	2255.26	2124.71	1761.71	1678.35	1400.31	1439.26	1324.38	1277.98	1083.06	993.931	1189.14	1059.68	931.875	616.881	828.968	803.946	648.17	688.596	772.907	588.557	695.33	492.92	534.883	532.48	455.054	463.071	341.726	443.527
 73.7	0	39375	51241.4	47745.9	36845.2	49166.2	51920.7	48904.4	46712.6	45386.3	43633.3	37838.3	38225.5	34589.7	30489.2	29723.4	27772	24280.8	22866.1	20428.2	19382.9	17495.8	15965.7	13404.8	13085.3	13823.9	11473.1	10875.5	9819.71	9165.95	7823.82	7079.83	6231.94	5477.05	5515.76	4985.91	4817.61	4036.4	4507.76	3817.19	3133.51	3452.92	2701.92	2720.83	2522.63	2346.17	2454.89	2024.22	1906.28	1874.19	1672.58	1632.36	1323.34	1460.28	1240.71	1382.38	1184.49	992.127	1019.98	876.479	987.001	793.695	823.099	732.04	830.82	672.605	659.322	459.613	465.105	490.664	489.653	560.35	354.837	362.047
 76.4	0	35168.1	55525.6	46854.6	39669.3	50628.9	52665.4	51863.4	46156.3	47497.6	45196.8	40781.3	39294.6	37137.9	35018.4	29377.6	30250.7	26437.8	23215	22275.9	21151.1	18907	16496.2	15555.7	14911.9	14117.5	12506.4	10893.4	11127.9	9679.58	9491.43	7608.39	6274.64	5702.71	6349.19	5635.99	5472.65	5150.11	4301.72	3681.01	3311.62	3807.81	3170.63	2838.9	3113.74	2600.76	2578.23	2200.43	2424.52	1976.73	1948.99	1867.09	1560.56	1303.28	1806.82	1608.14	1134.83	1201.98	1084.9	998.2	1031.46	830.857	889.444	1037.59	917.283	737.806	660.359	546.645	414.285	593.457	631.205	491.84	430.471	398.717
 79.1	0	35802.9	48345.7	46426.4	39177.4	49936.9	52074.4	51839.7	48327.9	48392.1	50244	42243.2	41666.1	38037.3	35591	32444.2	30837.5	27324.1	25462.2	23826.6	22167.7	19871	17902.3	16046	16198.7	14553.4	13764.7	13492.7	12403.2	10654.3	9714.4	8300.15	7476.66	7364.74	6174.48	5945.33	5392.76	5201.79	5190.46	3996.24	4097.89	3696.54	3547.56	2905.63	3316.99	3165.3	2566.75	2602.59	2171.24	2037.5	1704.4	2214.78	1870.07	1760.14	1573.94	1388.67	1341.22	1209.48	1331.31	1159.09	1193.17	938.361	1082.09	841.722	807.875	724.745	602.859	747.131	541.803	527.321	560.612	551.138	451.566	545.338
 82.0	0	26456.7	45951.1	50052.9	40678.9	51391.2	54677.1	53160.1	48250.8	50907.8	49854.5	43698.1	42544.8	40983.8	38066.8	35087.1	33176.9	30862.9	26695.4	24902.4	24460.1	21862.9	19320.7	18280.6	18313.9	15566.5	14643.9	14252.4	12595.7	11914.8	10300.5	9411.69	7527.75	7290.06	7039.93	6738.74	6064.72	5046.41	5684.96	4292.58	4005.24	3978.13	3705.71	3402.26	3387.57	3376.98	2806.12	2875.91	2718.43	2257.68	2025.36	2129.65	1802.9	1688.62	1604.52	1650.83	1269.36	1324.9	1329.17	1204.49	992.798	862.957	1001.99	1034.59	903.538	885.38	954.652	714.037	685.619	713.409	771.314	474.265	527.232	685.163
 85.1	0	17728.7	44272	42081.6	42394.2	47910.7	53465.8	54067.7	48502.3	53595.4	51814.3	46412.1	44474.9	43297.7	39791.5	35462.8	34396.2	32724.4	28685.8	25871.9	25075.4	23345.1	19895.3	18541.4	18585.4	17021.9	14923.4	14582.2	12835.9	12525.1	10771	9886.72	9021.51	7469.63	7821.89	6952.92	6235.06	6114.92	5772.11	4858.5	4476.17	4393.37	4359.9	3704.18	4003.39	3179.75	3285	3259.28	3065.5	2452.45	2263.83	2277.84	2082.77	2053.19	1729.01	1412.8	1566.73	1640.54	1636.49	1407.26	1409.19	1337.78	903.168	1120.99	941.495	833.511	799.524	759.672	672.22	710.926	728.903	635.696	685.723	463.267
 88.2	0	9533.97	45344.2	44180.9	37518	57036.4	52880.4	54588.5	51199.9	53737.5	53353.2	47198.5	49157.7	43816	41835.2	37526.7	36515.1	34265	28584.9	28445.1	25532.3	25294.5	22252.7	21328.3	19980.3	18503.2	16852.6	15892.3	14463.3	13502.8	11446	10848.7	9908.02	8728.06	7360.41	7947.85	7129.7	6794.04	6059.78	5107.98	5620.5	4230.02	4401.22	4112.49	4119.12	3945.12	3234	3334.93	3104.14	2465.36	2672.19	2316.3	2203.05	2048.7	2069.5	1923.6	1732.49	1388.7	1337.09	1335.42	1353.02	1288.67	1112.05	1017.38	1070.72	819.605	1008.33	873.121	755.814	691.189	763.534	678.895	480.236	620.897
 91.4	0	7595.84	41790.5	42040.4	34927.9	51810.2	55336.5	53921.4	51567.6	54238.3	56485.5	49350.7	47165	46835	42385.2	39456	38092.3	35484.6	31262.1	30151.7	28540.5	25110.6	22463	22126.2	19908	19076.7	17538.2	17035.8	15270.3	13673.5	12533.6	11690.7	9877.3	9128.8	8164.62	7635.36	7368.4	7132.7	6379.03	5315.73	4860.72	5400.7	4961.11	4161.16	3889.08	4156.35	3410.16	4017.47	3285.74	2812.73	2562.85	2218.77	2417.66	2141.1	2167.41	1812.05	1677.15	1487.56	1563.61	1607.5	1619.25	1207.2	1306.39	1358.38	882.971	1094.44	887.124	821.107	872.172	602.99	678.989	671.698	618.622	604.873
 94.7	0	1782.4	48362.7	41050.2	36462.6	51139.1	55735.1	56522.7	51902	58276	55192.8	50894.5	48833.9	49799.8	45340.4	39562.6	41101.9	36469.3	32522	30131.4	27859	26453.9	24060.7	23001.9	21864.7	19785.9	18248.3	17859.5	15537.3	14980	12911.9	11793.7	10336.1	9236.43	9217.9	8021.72	7728.07	7020.78	6964.33	6026.91	5209.14	5432.53	5081.56	4371.44	4571.79	4268.5	3947.8	3793.35	3700.05	3354.93	3026.69	2649.35	2366.98	2240.58	2220.63	2021.53	1898.51	1731.92	1814.26	1503.58	1627.18	1291.32	1282.4	1352.44	1249.17	1145.6	919.315	1027.43	954.996	747.126	1088.92	660.49	622.242	682.498
 98.2	0	4797.32	41371.9	43702.9	36589.2	51261.2	54718.4	59201.8	51534.4	52903.9	57399.7	50983	50420.5	49064.5	47359.2	40467.3	41832.6	39122.4	33326.5	31707.7	30909.3	30486.7	23969.1	24100.8	22307.2	21053.4	19476.3	19145.5	18240.1	15915.5	13730	12274.8	10847.7	9767.87	9788.96	9145.3	8472.59	8012.96	7526.32	6221.96	5851.42	5557.19	5623.33	4499.83	4645.9	4493.25	3809.92	3999.08	3531.91	3349.79	3019.22	2749.6	2624.43	2392.56	2530.71	2444.27	2016.34	2006.18	1704.91	1527.88	1569.11	1506.78	1445.31	1382.49	1361.99	1121.92	1111.89	964.492	945.463	870.57	1120.8	762.099	771.979	729.001
101.8	0	12361.7	42024	42135	37371.5	46011.2	53834.5	56385.9	51988.2	55559.3	58575.1	52275.8	50942.2	50196.1	46338	44039.9	42355.7	40501.4	33973.5	33507.1	31062.8	29094.5	26838	25181	23874.5	21595.8	20422.4	19945	18522.3	17009	14179.9	12840.1	11138.7	9900.81	9793.83	9246.69	8717.39	8171.54	7476.74	6653.03	5370.28	5991.91	5712.92	5334.02	5177.23	4514.16	4629.59	4248.78	3861.59	3435.15	3533.95	3230.55	2885.21	2782.78	2486.54	2304.69	2334.33	2276.91	1791.19	1523.06	1776.03	1599.9	1446.09	1463.09	1595.76	1073.97	1099.17	969.868	1002.87	823.563	805.656	830.593	698.888	843.41
105.5	0	11741.1	46008.5	49539.9	37473.2	50105.5	56703.4	57106.9	53778.5	60565.8	59360.7	52214.4	50777.8	52280.8	47656.9	43497.4	44085.3	40397	36151.4	33029.6	31538.3	31031.3	28331.5	26086	24565.3	23345.6	21488.9	20195.2	18809.2	17449.6	14847.5	13357.2	11771.3	10800.2	10242.6	9593.59	9108.27	8680.42	8155.33	7347.63	6174.94	6186.25	5496.11	5598.61	5211.44	4583.21	4423.11	4467.47	3953.91	3422.33	3418.04	3244.27	2842.74	2493.08	2480.55	2555.23	1968.9	2287.78	1853.07	1735.48	1935.24	1755.97	1522.97	1399.95	1297.28	1312.23	1124.69	1197.13	940.464	894.485	887.689	1016.43	850.847	953.251
109.4	0	16335.2	42600.2	45020.3	35016.7	50119	55860.2	56129.6	53641.7	57456.3	59098.2	53146.9	52236.9	52550.7	49363.9	43694.5	44455.8	44127.7	36181.9	34714.9	33160.5	30050.8	29116.5	28631	25207.6	22987.4	21781.2	21299	19695.5	17805.7	14944.5	13864.6	12218.3	11371.6	10737.1	9694.94	9834.02	8756.5	8205.11	7114.34	6740.2	6248.25	6220.44	5671.24	5624.62	5221.7	4460.82	4852.87	4076.98	3375.57	3615.11	3283.98	3030.69	2410.93	2832.34	2388.33	2121.48	1922.21	2259.77	1952.31	1857.09	1828.32	1564.46	1549.43	1352.71	1232.33	1240.55	1187.67	1081.38	819.376	1102.79	927.003	824.903	910.864
113.4	0	21131.3	42045.3	49660	38156.3	51074.4	56500.9	55677.5	52261.1	57715.8	62673.6	53390	53535	52205.9	48301	45390.1	44300.1	42938.3	37569.5	35493.2	34444.6	31654.8	29668.7	27228.9	27123.3	23958.9	22097.6	21828.2	20214.8	18485.5	15348	14875.3	12498.7	11897.5	10575.7	10309.1	9388.58	8542.38	9359.13	7439.49	6773.85	7025.77	5925.08	5695.27	5583.63	5515.81	4945.66	4981.11	4225.49	3644.71	3533.56	3436.27	3044.37	3093.73	2592.36	2347.44	2378.17	2207.5	2349.94	1551.69	1657.14	1892.13	1687.47	1299.58	1405.79	1189.52	1306.26	1150.76	1033.7	969.865	1036.85	920.706	882.673	953.661
117.6	0	22874.8	42317.7	45787.4	39834.4	50212.9	55881.9	56833.4	53432.6	60029.8	59575.9	54183.8	51771.6	52470.3	51196.5	44469	44411.9	42674.2	38938.5	35177.8	34862	32341.1	29910.1	28300.5	25255.7	24700.6	22567.9	21984.5	19921.7	18719.4	16034.9	14719.4	13907.5	11115.9	11074.2	10213.3	10386.4	9487.96	8409.05	7636.62	6268.98	6774.44	5906.05	5809.06	5864.78	5334.64	5057.26	4593.54	4439.44	4076.81	3840.8	3261.47	2998.51	2916.19	2683.4	2758.94	2302.38	2342.55	1986.6	1857.4	1895.78	1651.45	1770.96	1660.99	1593.51	1412.47	1266.32	1218.08	1213.78	952.347	1072.03	970.158	915.588	851.59
121.9	0	25761.8	43479.1	45405	36100.7	49275.2	54815.3	56053.8	52309.5	56558.8	59087.1	55654.2	53167.9	52908.2	50352.1	45967.6	44220.1	42945.6	37378.1	35608.2	35549.5	32692.2	30959.5	28384.5	26231.3	26827.4	22642.3	19824.3	20889.3	18367.3	16218.3	14887.6	13122.4	11464.7	10948.2	10657.1	10311.4	9460.16	9180.05	7952.46	6837.54	6839.01	6340.06	6080.29	5676.28	5553.16	5199.09	4858.53	4550.78	4027.6	3561.37	3460.13	3071.68	3004.3	2707.3	2264.31	2659.05	2493.71	2203.64	1835.5	1906.37	1856.85	1919.96	1764.54	1624.34	1377.86	1236.09	1234.13	1039.84	1000.85	1152.32	1075.81	921.638	815.357
126.3	0	29027.4	43411.2	46593.8	39719.2	51404.6	54900	55546.3	52811	50077.4	57325.1	54039.1	54402.3	52962.7	49623.4	45283.8	45915.3	42516	38801.1	36911.5	35340.4	31950.5	31735.8	28910.3	25364.1	25655.9	23154.5	22086.5	20439.8	18919	16109	14614.1	13343.2	11987.7	11823.2	11080.2	10362.9	9633.6	8702.19	7575.3	7189.98	6833.09	6304.03	6007.01	5886.51	5369.85	5151.15	4927.22	4503.94	4185.23	3758.51	3514.69	3359.05	3098.4	2790.71	2783.84	2400.76	2285.41	2056.31	1814.25	1767.1	1969.99	1807.69	1626.96	1646.75	1499.94	1281.09	1329.17	1104.06	997.349	1101.79	1097.58	768.574	925.303
131.0	0	30431.6	41928.7	45510.2	37003.5	47678.3	56493.9	52590.1	49247.1	58264.8	57108.3	52395.9	53306	52709.8	50062.1	44398	46632.2	41627.3	38692.6	36126.8	34972.9	32332	30801.6	28309.1	26760.9	24617.7	23494.7	22254	20464.7	18894.3	16176.1	14472	12969.5	11709.6	11732	10726.9	10176.2	9273.69	8923.33	8249.6	6799.3	7211.77	6189.77	5723.02	5692.7	5420.85	5164.46	5035.08	4768.16	4128.3	3652.45	3825.22	3306.29	2826.44	2889.24	2402.7	2254.91	2639.53	1962.34	1987.31	1966.66	1655.12	1930.99	1700.63	1366.46	1567.84	1258.8	1157.94	1143.49	993.703	1191.48	973.553	1032.54	800.798
135.8	0	33221.2	43099.1	46069.8	39770.4	47036.1	54078.6	54516.9	51767	49801.8	55066.9	51686.8	50542.8	50627.4	50054.9	44336.2	44713	41767.9	37458.6	35336.1	34015.7	32120.1	30208.2	27434.9	26166.4	24422.9	23114.7	21885.6	21358.5	17857.7	16227.6	14908.4	13254.6	11746.3	10928.7	10811.5	10485	8776.28	8849.5	7567.83	6769.65	7383.9	6135.68	6139.16	5812.82	5428.92	5113.67	4021.53	4419.19	4137.44	3568.83	3632.06	3055.65	2976.3	2779.24	2824.42	2412.32	2380.38	2171.72	1927.69	1710.93	1946.12	1840.64	1492.86	1537.42	1524.49	1370.56	1382.45	1235.97	988.588	1011.69	1144.01	946.24	827.114
140.7	0	33626.5	42685.1	44751	36213.7	45690.6	51793.6	53360.3	49350.1	52178.5	53874.2	50424.7	48802.5	49038.5	47648.2	43583.5	42835.2	41517.3	37088.5	34212	33669.1	33124.2	29826.6	27233.1	25610.4	24179.8	22854.8	21763.8	20029.5	18687	16123.8	14723.3	12909.7	11827.2	11034.3	11075.8	10037.7	9086.24	9059.23	7606.67	6702.24	6728.45	6296.12	5728.67	5773.01	5238.85	5128.72	4974.18	4390.42	3855.64	3739.44	3784.24	3388.14	2922.34	2952.93	2652.13	2496.72	2204.57	2082.16	1920.38	2000.98	1932.97	1876.93	1549.11	1425.01	1389.12	1405.52	1145.93	1174.9	997.821	1086.94	1000.87	850.566	877.509
145.9	0	37302.9	41710.5	42720.8	37070.2	44583.7	48518.7	49551.5	50337.2	50149.5	51783.2	48782	46751.1	47782.9	45622	43052.6	37219.9	39269.2	36597.5	34294.3	32663.3	30716	30683.9	26946.2	24869.5	24269.5	22014.7	21235.7	19692	18508.3	15543.2	13735	12974.6	10987.8	10379.6	10364.3	9985.13	9539.15	8645.15	7489.15	6767.47	6391.66	6205.75	6060.76	5370.78	5304.23	4989.86	4584.37	4471.72	3977.76	3561.41	3530.24	2908.92	2997.08	2702.07	2503.9	2308.71	2336.64	2032.19	2092.14	1906.01	1782.36	1652.01	1494.34	1385.41	1319.7	1259.46	1206.48	1227.06	1054.22	767.779	983.168	694.101	740.311
151.2	0	34051.1	40809.7	41487.9	35463.2	41785.4	48092.8	47403	46299.8	49365.8	49247	46468.6	44867.3	45857.7	44073.6	40262.3	40262.8	37859.4	34780.9	32879.2	31599.8	29534.6	28251	25688.6	24233.1	23093.5	21376.8	20071.7	18701.7	16898.4	15189.2	14038.5	12377.9	11006.9	9857.36	10680.5	9356.67	8704.08	8018.35	7156.9	6844.04	6259.55	5722.38	5545.97	5524.62	5463.47	4884.47	4161.63	4022.72	3554.02	3516.03	3007.9	2824.54	2522.71	2522.8	2635.16	2370.59	2471.44	2205.37	2020.09	1796.59	1738.36	1614.48	1493.88	1310.28	1251.84	1213.65	1080.87	1028.01	864.41	849.979	1013.69	788.018	837.354
156.8	0	33242.2	37578	39088.1	34086.2	39213.5	44047.4	45022.5	44458.4	46566	46586.6	44483.2	42884	43591	44098.1	37972	37055.8	35990.2	33326.6	30977.6	30354.2	28851.5	26890	25870.3	23191.8	21872	19910.4	19196.8	17867.7	16533.9	13900.3	13072	12105.4	10888.1	10612	9590.18	8850.77	8541.37	7989.98	6740.13	6401.52	6034.38	5853.75	5042.93	5157.79	4857.3	4265.28	4326.41	3790.59	3481.01	3313.24	3300.99	2930.93	2567.85	2855.19	2240.25	2050.11	2169.08	2061.85	2001.34	1826.2	1644.17	1482.98	1372.27	1382.77	1269.27	1126.63	1072.03	1097.7	998.769	1027.98	882.415	678.944	737.675
162.5	0	34151.8	35259.9	39249.9	31623.5	37119.5	42178.8	42633.2	40464.2	42268.8	44560	41147.6	40395.6	40023.1	37478	36375.4	35522	34216.9	30527.3	30463.9	27764.5	27106.1	25016.9	22647.7	22021.2	20923.6	19680.7	18013	16279.3	16174.1	13680.8	12566.6	10893	9883.28	9359.1	8796.34	8882.26	7788.04	7833.45	6739.71	6056.48	6026.56	5179.83	4998.94	5120.59	4984.92	4453.36	4134.84	3707.6	3266.02	3220.71	3059.76	2819.89	2615.62	2449.26	2377	2162.06	2048.84	1805.4	1715.73	1514.21	1558.57	1685.64	1495.88	1288.34	1246.37	1082.35	999.871	1044.86	966.157	901.898	799.766	788.562	594.348
168.5	0	29864.5	32061.1	33975.6	31837.2	34302	39384.3	39284.1	37263.9	39577.2	40443.4	39969.6	38075.5	38009.2	36858.9	33037.5	32852.4	30823.5	29199.2	27131.7	25954.2	25705.7	23388.3	21430.8	21199.8	19306.9	18786.3	17092.1	15844.6	14418.8	12675.1	11924.8	10641	9528.31	9097.96	8747.67	8032.06	7339.61	7130.61	6259.36	5435.02	5781.08	5002.36	4832.96	4855.98	4136.05	4445.69	3615.56	3661.17	3092.03	2762.94	3026.42	2408.99	2193.91	2201.52	2396.18	1927.9	2080.73	1857.65	1925.79	1543.66	1408.92	1309.38	1079.77	1146.97	1135.49	1006.04	978.165	895.287	925.498	722.354	797.682	850.766	730.166
174.7	0	28327.8	30819.4	30795.4	27413.3	31941.2	35679.4	36149.6	35423.2	34763.4	36938.9	37327.6	35209.2	34666.6	34832.8	30582.6	30228.2	28892.4	26655.9	25891.9	24107.5	22505.3	21960	19634.6	19560.2	17588.9	17013.3	15638.9	15010	13470.9	11787.8	10580.8	10172.7	8986.2	8802.14	8171.23	7563.21	6814.1	6671.97	5836.54	5200.71	4956.66	4873.51	4269.73	4398.17	3946.99	3828.73	3418.23	3436.33	3252.35	2751.01	2503.96	2611.15	2167.09	1985.97	2153.49	1771	1851.87	1542.97	1693.03	1540.02	1290.99	1225.59	1254.55	1143.23	1020.97	957.232	973.349	1048.19	754.169	700.167	782.757	653.367	596.445
181.1	0	25637.9	27118.3	28565.5	27574.5	29848.2	32362	32439.4	31246.9	32946.6	32861.6	32747.8	31967.5	31064.8	29718.4	28569.8	27239.6	26584.3	24755.3	23061.9	22265.3	21114.9	19836.3	18283.2	17398.8	16620.1	15639.5	14065.3	13437.7	11747.5	10895.4	9599.19	8353.52	8188.02	7838.89	7542.73	6329.07	6384.38	6206.83	5128.67	4766.27	4715.16	4459.6	3916.92	3673.58	3664.96	3349.84	3080.65	3077.5	2614.65	2349.52	2192.31	2222.08	2047.04	2157.5	1744.38	1659.56	1719.01	1629.51	1384.71	1275.13	1407.27	1145.58	1066.27	1000.51	999.622	842.899	848.073	786.645	824.009	712.066	704.435	510.992	598.301
187.7	0	23395.2	22906.6	25438.3	23044.1	25559.8	29488.3	28310.9	28437.3	29118.4	30020.1	29292.6	28099.2	28112.4	27700.4	24960.1	25030.6	23649.3	21997.8	20487.3	20620.2	19230	17615.8	16060.7	15942.3	14581.3	13669.2	13689.6	12177.5	11585	9699.19	8906.62	7964.71	7186.84	7415.15	6498.97	6034.99	5947.13	5129.14	4779.65	4056.05	4169.59	4057.64	3537.83	3712.54	3643.32	2960.46	2721.09	2790.27	2385.83	2454.83	2277.82	2023.74	1607.54	1759.58	1688.29	1385.26	1576.53	1377.13	1195.19	1090	1049.69	981.695	1095.57	914.525	822.661	746.209	762.653	795.979	525.318	567.578	586.045	538.125	445.478
194.6	0	20036	19592.6	22226.8	19699.8	21873	24920.5	25314.3	24203.3	25752	25922.7	25109.2	24112.8	24155.1	24667.9	21634.9	21414.9	20913.8	19442	18086.1	17176.9	17117.4	15796.6	14647.9	13822.2	13086.7	11973.4	11483.3	10888	10115.6	8752	8403.23	7047.62	6657.67	6418.94	5916.32	5371.04	5031.69	5015.33	4412.73	3886.59	4069.56	3448.62	3043.77	3248.69	2916.07	2710.11	2584.77	2466.63	2308.63	1745.2	1977.37	1615.3	1522.1	1514.69	1490.65	1200.58	1351.79	1244.2	996.187	1094.82	902.47	877.361	830.283	882.569	716.362	652.586	689.557	636.537	587.538	676.1	428.071	526.501	429.562
201.7	0	17848.9	18837.9	19496.4	17066	19877.9	21705.6	23002.8	21860.8	22301.2	22682.1	21945.8	21837.8	22567.3	20381.9	19929.9	19156.5	18319.1	16632.9	15683.2	14935	15810	14504.5	12852.8	12407.8	11530.8	10520.6	10195.8	9463.71	8966.35	7368.14	7066.68	6043.1	5665.44	5601.28	5444.1	4638.26	4334.34	4267.15	3573.17	3116.29	3159.9	3266.29	2811.85	2753.92	2551.09	2603.98	2152.18	2074.43	1980.49	1995.37	1777.05	1508.62	1307.35	1296.35	1382.19	1198.37	1031.35	1108.69	1026.57	903.815	833.228	848.965	808.809	747.103	645.977	652.976	662.135	549.421	561.225	499.099	488.687	362.376	404.844
209.1	0	14601.6	15711.8	15985.9	14865	16454.6	19020	18305.9	19082.1	18876.7	20548.3	19323	18593.1	17775.1	17377.6	17778.7	16189.8	15745.3	15034.6	13672.7	13055.6	13033.3	12134	11165.5	11115.6	10107.4	8694.86	8827.65	8624.84	7828.9	6322.19	6049.09	5339.32	4906.66	4446.67	4480.88	4105.61	3766.42	3885.68	2794.9	2806.87	2963.71	2847.49	2361.78	2029.34	2199.98	2056.27	1810.14	1769.59	1591.68	1468.3	1409.42	1411.86	1212.57	1107.28	1086.59	1018.76	1009.72	837.466	907.44	771.703	762.209	762.069	685.021	664.442	603.288	434.752	558.167	456.406	416.161	397.184	438.498	231.39	410.089
216.7	0	11842.1	13416.7	13258.4	12392.1	13477.1	15701.4	15512.9	15746.1	15998	16568.5	16182.9	15060.2	15725.9	13688.8	14408.5	14023.7	13045.3	12079.5	11604.9	10856.1	11144.9	10177	9166.82	8786.86	8135.69	7733.28	6812.49	7008.25	6795.3	5517.05	5096.64	4733.28	4135.66	4288.09	3800	3582.64	3268.86	3056.02	2586.97	2463.09	2328.53	2342.67	2120.48	2133.84	1922.24	1763.23	1645.49	1648.78	1462.09	1231.56	1115.02	1123.01	1072.32	1034.88	933.731	802.225	813.479	846.659	692.541	534.368	712.661	539.336	613.551	505.842	483.733	470.378	471.797	364.498	436.184	378.935	267.193	290.203	266.327
224.7	0	9632.68	10049	11015	9827.35	11241.4	12665.4	12667.6	12746	13492.5	13127.4	13368	12740.3	13476.4	12812.2	12054.4	11861.9	10954.7	10222.9	9836.43	9451.53	9332.38	8511.89	8518.86	7478.95	7394.53	6648.22	6288.26	6053.14	5361.17	4656.82	4356.38	3829.39	3304.73	3350.88	3401.3	3072.03	2485.54	2529.28	2277.51	2233.71	2159.93	2009.49	1690.41	1627.74	1596	1515.52	1314.97	1149.27	1034.29	1101.49	961.949	864.136	792.213	866.181	809.003	697.886	770.08	679.269	597.514	619.111	504.286	421.615	395.185	367.584	489.949	435.214	301.483	349.431	316.378	295.078	281.979	259.681	214.469
232.9	0	8045.71	8319.31	8401.04	8465.45	9107.39	9960.63	10555.5	9943.5	10255.1	11250	11112.5	10313.6	10931.9	10634.1	9617.46	9060.11	9666.18	8383.48	7941.98	7449.53	7671.65	6834.39	6192.01	5724.14	5866.82	5557.92	4990.64	4570.54	4331.09	4081.58	3448.63	3166.94	2709.73	2859.7	2566.39	2450.86	1983.22	2313.21	1785.38	1505.38	1636.07	1615.48	1433.07	1396.48	1353.44	1233.12	1063.28	1245.97	1016.2	869.239	853.18	694.962	596.019	694.081	576.234	649.796	498.33	581.145	406.989	474.149	431.602	330.748	360.289	350.844	321.309	252.553	343.992	275.601	274.361	312.294	249.368	192.773	162.648
241.4	0	6081.56	6407	6698.74	6498.28	7328.65	8440.63	8011.49	8226.08	8546.9	9007.05	8148.18	8538.1	8266.2	8514.56	7545.66	7096.31	7007.97	6706.4	6569.7	6236.13	5989.28	5771.16	5022.83	4798.89	4711.65	4766.35	4071.22	4154.57	3687.85	3283.8	2702.39	2484.69	2324.7	2171.36	2266.46	1846.61	1661.6	1728.06	1457.14	1487.12	1190.21	1338.23	1132.43	1006.84	1019.06	891.278	1064.98	738.127	774.994	722.52	669.443	457.313	604.163	492.265	523.169	477.664	524.14	405.563	424.281	314.824	387.254	320.985	326.481	250.257	308.527	310.556	197.89	213.63	254.794	144.665	204.985	170.079	80.371
250.3	0	4531.8	5345.31	5409.96	5345.22	5810.08	6812.32	6627.1	6317.49	6902.14	7075.27	7182.87	6640.49	6527.99	6663.77	6029.89	5827.11	5837.33	5120.71	4916.17	4931.08	4445.81	4237	4045.87	3623.69	3975.09	3460.58	3010.24	3160.11	2720.33	2380.25	2321.18	1932.15	1745.25	1760.37	1728.56	1548.07	1380.54	1300.99	1487.66	980.333	1174.78	1034.12	780.477	848.361	854.441	979.329	640.075	605.777	660.648	500.881	447.944	478.914	466.491	421.507	447.269	348.046	372.716	272.773	293.854	228.112	333.652	306.478	196.551	271.839	302.752	198.834	150.184	173.14	218.471	107.637	155.8	144.101	143.67
259.5	0	3429.38	4170.34	3961.19	3801.11	4610.03	4966.59	4904.04	5027.44	5088.66	5280.12	5213.29	5324.6	4879.74	5240.07	4659.06	4383.32	4042.35	3963.73	4194.65	3861.15	3662.71	3429.25	3083.24	3145.83	2688.53	2751.34	2370.17	2527.34	1901.21	1737.84	1743.97	1501.46	1220.56	1328.35	1371.38	1098.4	1032.78	1135.59	841.215	939.497	782.646	696.169	734.9	595.671	706.791	570.427	505.259	621.19	470.917	348.401	403.542	421.343	353.168	253.63	256.711	242.294	227.426	253.815	207.999	210.494	208.669	248.851	183.453	214.515	177.319	170.389	115.162	101.835	84.8558	123.519	73.3737	58.8793	129.656
269.0	0	2745.81	3066.31	3399.84	3226.45	3269.77	3454.03	3583.78	3570.36	3618.86	4048.34	4261.09	3790.98	3681.6	3905.26	3474.76	3607	3491.55	3138.57	3229.02	2854.2	2585.83	2525.45	2366.66	2171.2	2096.76	1893.91	2106.29	1807.69	1563.35	1502.63	1314.5	1124.44	1131.81	1059.21	1003.78	945.095	821.266	724.941	571.541	795.433	541.867	584.483	514.038	470.506	493.874	407.908	400.481	464.894	368.076	377.727	322.693	246.258	241.618	306.148	192.814	175.334	158.798	229.234	189.868	158.409	218.404	129.745	196.093	114.213	168.982	116.091	132.762	96.4723	156.725	79.8026	85.0893	108.924	79.8032
278.8	0	2137.39	1882.54	2381.23	2127.95	2315.7	2780.98	2757.23	2585.15	2991.76	2795.04	3162.73	2796.93	2878.23	2867.69	2898.9	2574.68	2805.15	2113.14	2235.85	2217.85	2231.5	1736.74	1884.98	1742.8	1587.27	1475.24	1448.09	1339.23	1274.65	1104.57	947.299	888.445	792.833	790.592	711.419	737.256	521.907	587.554	515.139	482.961	403.381	370.703	362.997	414.942	388.714	292.97	335.782	270.309	290.201	254.814	227.403	183.09	176.875	269.612	125.055	140.499	130.652	187.785	147.031	34.1449	151.533	109.322	85.9625	62.8513	132.189	75.8667	77.895	60.8222	37.7099	55.2288	46.4696	47.406	58.7948
289.0	0	1446.2	1749.84	1467.97	1523.17	1924.2	1737.02	2168.87	1858.91	2064.6	2069.04	1974.14	1908.51	1836.59	2048.56	1911.12	1738.49	1549.56	1520.79	1589.99	1476.95	1411.32	1341.55	1286.19	1247.7	1143.03	1080.09	1020.44	869.007	830.651	642.416	669.976	671.831	439.552	528.757	551.528	482.301	415.982	474.818	319.644	325.914	381.328	287.555	324.759	259.22	224.679	257.655	231.147	221.199	191.969	153.731	164.721	155.83	156.425	134.569	173.013	105.643	118.343	100.976	71.8453	86.5067	86.4464	46.4372	82.8339	95.5083	44.5705	52.804	46.3765	57.3047	70.1598	48.1824	84.5794	45.4877	57.3653
299.6	0	995.12	1267.36	1198.05	1008.86	1138.86	1525.41	1562	1353.22	1432.8	1656.86	1347.17	1439.77	1270.03	1618.89	1211.23	1227.43	1274.79	940.478	1239.37	1116.77	1044.36	1015.67	923.051	861.828	831.426	713.803	696.673	574.163	616.977	478.535	513.322	480.83	380.227	334.794	403.367	406.067	266.211	318.246	233.822	226.14	261.197	269.04	138.379	186.354	124.128	174.477	161.641	130.476	129.325	84.3693	130.599	124.25	103.529	108.768	104.592	45.1469	90.4651	40.0715	66.0151	52.9512	45.2324	45.2326	46.542	38.8234	25.8822	51.7028	25.8821	19.4116	52.951	46.6034	12.941	27.1303	58.1734
310.6	0	682.597	753.66	770.958	740.034	921.168	959.829	996.115	878.646	787.715	1069.69	1014.95	1047.13	993.561	1119.02	1043.65	926.02	799.783	792.032	784.69	748.874	708.352	794.704	605.912	633.664	500.61	552.646	537.995	451.781	301.991	366.626	339.423	304.868	333.315	235.98	247.814	307.514	203.965	185.669	149.102	118.333	183.277	194.169	149.71	144.389	116.4	128.051	82.3486	72.552	90.2386	41.3947	92.1723	48.3236	80.4153	86.2672	74.4841	41.7833	36.5672	44.4573	72.5511	50.9975	39.2411	19.6206	39.8502	19.6206	41.1742	39.2409	26.1607	26.1606	24.8368	11.7565	19.6204	11.7565	19.6205
322.0	0	504.426	644.238	570.803	590.001	523.208	627.022	717.213	607.906	524.714	717.521	807.498	703.945	639.647	787.711	646.933	576.291	698.404	508.529	568.161	454.585	477.207	415.938	299.913	414.807	448.018	346.081	409.03	220.197	327.687	251.361	218.825	148.054	253.326	217.478	146.255	243.537	153.277	175.613	123.548	104.431	83.15	111.081	79.7575	106.277	76.999	51.1928	89.1656	106.357	26.5989	39.7579	35.1348	53.1183	53.1582	48.4739	31.2433	42.617	42.6173	33.2486	57.882	39.8984	33.2487	39.8986	31.2831	13.2995	17.9837	6.64971	19.9492	0	6.6497	13.2994	39.8982	13.2994	6.64973
333.8	0	477.205	351.331	361.394	383.794	526.546	500.843	550.122	376.97	510.227	407.782	592.657	458.944	522.051	479.051	374.853	399.935	397.126	303.801	416.705	415.037	299.414	328.214	267.405	192.608	300.116	206.975	208.252	171.589	179.24	245.62	109.101	134.621	110.354	89.9663	93.9807	161.613	114.246	31.8513	106.339	60.8699	79.7482	97.1923	65.6745	82.0471	71.7321	25.0946	48.5959	34.1504	87.9225	40.5798	58.2054	25.4281	38.6211	27.6002	31.8577	20.2898	20.2899	48.5956	6.76327	6.76327	14.7794	20.2899	20.2898	20.2899	6.76328	20.2898	13.5265	20.2898	6.76325	0	0	20.2897	8.01611
346.0	0	215.02	328.376	235.51	169.959	305.267	342.365	329.53	299.698	394.022	295.784	301.016	335.697	293.949	319.113	357.118	304.283	278.188	236.076	286.149	239.795	194.753	228.648	96.9112	239.568	183.694	149.102	106.908	113.634	175.082	121.855	116.282	67.2437	65.9485	75.3511	114.788	46.6134	87.4272	52.1866	68.3974	41.0406	38.5064	52.0733	40.8138	34.2004	32.9334	13.6802	19.2531	54.6075	41.0403	27.3603	19.2532	34.2002	20.5202	24.8261	6.84004	20.4067	13.6801	19.253	6.84004	6.84004	19.2531	6.84008	0	6.84006	6.84006	13.6801	6.84004	6.84003	6.84002	0	6.84002	6.84002	5.57298
358.7	0	225.427	214.054	168.611	161.189	200.289	131.611	237.63	170.024	185.148	128.691	215.848	246.182	139.908	175.687	187.187	207.567	204.672	161.292	208.41	139.718	154.569	148.869	160.443	83.8754	69.8387	100.144	109.181	102.336	86.3385	83.5293	79.1466	83.6446	43.0817	48.8409	35.0346	55.6859	25.8825	74.3771	55.9169	41.7646	41.7646	14.0369	28.0738	20.8823	13.9215	6.96075	13.9215	0.115372	13.9214	13.9215	13.9215	0	6.96073	6.96073	6.96071	14.0368	0	13.9214	13.9214	6.96072	6.96073	0	6.96071	0	6.96073	13.9214	0	0	6.9607	0	0	6.9607	0
371.8	0	170.421	94.349	142.001	158.24	138.584	117.838	182.959	169.114	135.71	111.426	115.378	145.027	94.2316	158.35	161.355	114.214	75.3677	105.012	84.4748	98.8105	96.4162	91.5607	77.9461	70.8602	49.6023	56.1308	44.7468	75.1584	36.9402	56.6882	41.9588	23.3254	9.31672	28.3442	44.5834	35.43	16.4027	66.0048	7.08603	14.172	49.6021	4.13462	21.258	14.172	14.172	2.0673	0	21.2581	0	7.08599	9.15331	0	7.08598	0	7.08596	14.1719	7.08599	7.08596	0	14.1719	21.2579	0	0	7.08599	0	0	0	0	0	7.08596	0	7.08595	0
385.4	0	76.1094	119.851	109.142	92.6047	70.8805	64.945	136.299	109.367	110.529	106.569	82.3828	84.4884	48.07	82.617	70.056	80.9715	55.9798	109.142	41.1913	63.5335	62.8397	26.7591	41.885	5.80449	28.8645	33.9753	43.2967	54.2121	31.8701	7.21612	33.9753	19.5431	14.4322	14.4323	19.5431	21.6483	28.8644	0	0	0	5.80448	10.2217	7.2161	14.4322	14.4322	12.3269	7.21609	7.21612	27.4527	0	12.3269	0	0	0	14.4321	0	7.21608	14.4321	0	7.21606	0	0	0	0	0	7.21605	0	0	0	0	0	0	0
399.5	0	74.6851	63.9986	64.2607	43.8271	56.745	39.8027	99.6098	29.8705	68.5982	72.2686	81.9896	65.7407	63.3238	67.3743	54.4118	23.3425	42.8393	21.9135	36.5224	39.5916	29.218	7.30448	16.0379	52.5604	29.218	7.30449	21.9135	8.73342	43.8271	7.3045	36.5224	7.30449	14.609	4.18462	0	7.30447	21.9134	14.609	7.3045	7.30449	8.73339	14.609	7.30448	0	7.30448	0	0	7.3045	8.73335	0	7.30448	0	7.30446	0	0	0	0	7.30444	0	7.30445	0	7.30447	0	0	0	7.30444	0	7.30443	7.30443	0	0	7.30443	0
414.2	0	65.3183	35.7182	30.2493	44.6598	20.3555	37.9957	36.5523	39.667	37.2164	54.5537	28.1019	11.5652	29.7731	20.6586	52.8824	26.4518	29.7732	29.7731	29.7731	54.5536	19.0084	0	7.44327	22.3299	4.12185	7.44329	7.44329	22.3299	0	7.44329	0	0	7.44329	12.9122	11.5651	14.8865	14.8865	0	7.44329	14.8866	14.8866	0	7.44328	7.44327	0	14.8865	7.44326	0	0	7.44326	11.5651	0	0	7.44325	7.44323	7.44323	4.12182	0	0	0	7.44325	0	0	0	0	0	0	0	0	0	7.44322	0	0
429.4	0	28.7856	18.5613	26.149	22.7632	22.7631	41.3244	30.3508	24.5838	37.9385	33.7368	22.7631	62.5225	0	22.7632	10.9736	26.1491	22.7631	30.3508	28.7855	33.7368	26.149	0	7.58769	22.7631	3.3859	0	15.1754	7.58772	21.1979	0	0	7.58771	0	0	3.38589	7.58768	7.58769	0	7.58771	0	0	0	0	0	15.1754	0	0	0	0	7.58768	3.38589	0	0	0	0	0	3.38588	0	0	7.58766	0	0	0	0	0	0	0	0	0	0	0	0	0
445.1	0	47.7025	23.0585	0	23.0585	38.4308	15.3723	30.7446	24.644	38.4307	7.68617	15.3723	32.3302	30.3305	0	7.68617	7.68618	23.0585	38.4307	9.27168	0	7.68615	0	15.3723	22.6444	0	7.27209	23.0585	0	9.27171	7.68616	0	7.68616	0	0	0	0	7.68614	7.68615	0	0	0	7.68616	7.68615	7.27208	0	0	0	0	0	0	0	0	0	0	0	0	0	0	0	7.68611	7.68612	0	0	0	0	0	0	0	0	0	0	0	0
461.4	0	47.0444	7.84073	7.84073	15.6815	0	7.84073	0	0	47.0443	7.94137	31.3629	15.7821	16.1038	7.84075	7.84074	31.363	0	0	15.6814	0	7.84072	0.100633	15.6814	0.422391	7.84074	23.9446	7.84073	0	0	7.84073	0.100633	7.84073	7.84073	0	7.84073	0.100633	0	15.6814	0	7.84073	0	0	0	0.42239	0	0	0	0	0	0	0	7.84069	0	0	0	0	0	0	0	0	0	0	0	0	0	0	0	0	0	0	0	0	0
478.3	0	15.9697	16.0038	8.0019	16.0038	23.9715	16.0038	8.0019	47.9773	0	7.89921	0	7.89922	16.0038	16.0038	8.00191	8.00192	8.0019	0	0	0	0	15.9011	8.00189	0	16.0038	8.0019	0	0	0	0	7.89919	0	0	0	0	7.89918	0	0	0	8.0019	0	8.0019	0	0	8.00189	0	0	0	0	0	0	0	0	0	0	0	0	8.00185	0	0	0	0	0	0	0	0	0	0	0	0	0	0	0
495.8	0	8.14675	16.2243	0	24.3364	0.0346092	39.7234	7.27487	23.5338	8.11213	0	0	8.11216	8.11214	16.2243	16.2243	8.11216	16.2243	15.387	8.11213	0	8.11213	8.11213	0	8.11214	8.11215	7.27487	0	0	0	0	0	0	0	0	0	8.11212	8.11212	0	0	8.11214	0	0	0	0	0	0	0	0	8.11211	0	0	0	0	0	0	8.1121	0	0	0	0	0	0	0	0	0	0	0	0	0	0	0	0	0
514.0	0	14.2342	5.94891	8.28527	33.1411	0	17.4257	15.0893	0.85514	0	8.28528	16.5705	8.28528	0	8.28528	0	8.28529	0	9.1404	8.28525	8.28527	8.28526	8.28525	0	8.28526	0	9.1404	0	0	0	0	0	0	0	0	0	0	0	0	0	0	0	0	0	0	0	0	0	0	0	5.9489	0	0	0	0	0	0	0	0	0	0	0	0	0	0	0	0	0	0	0	0	0	0	0
532.8	0	10.7738	14.6518	0	0	0	8.40394	10.7738	8.40395	0	0	8.40394	8.40396	0	0	8.40395	0	8.40395	8.40394	8.40393	0	8.40394	0	0	0	0	0	0	0	0	0	8.40394	8.40394	0	0	0	8.40392	0	0	0	0	8.40394	0	0	0	0	0	0	0	0	2.36982	0	0	0	0	0	0	0	0	0	0	0	0	0	0	0	0	0	0	0	0	0	0	0
552.3	0	0	4.59177	8.52627	8.52627	0	0	8.52627	0	0	0	8.52627	0	0	8.52628	0	0	0	8.52626	1.10162	8.52627	8.52626	0	0	0	0	8.52627	0	0	0	0	0	8.52627	0	0	0	0	8.52625	0	0	0	0	0	0	0	0	0	0	0	0	0	0	0	0	0	0	0	0	0	0	0	0	0	0	0	0	0	0	0	0	0	0	0	0
572.5	0	8.71845	8.71845	6.30653	0	8.71845	8.71845	8.71845	0	0	0	8.71845	0	0	0	0	17.4369	0	0	7.59199	8.71846	8.71845	0	0	0	0	0	0	0	0	0	0	0	0	0	0	0	0	8.71845	0	0	0	0	0	0	0	0	0	8.71846	0	0	0	8.71842	0	0	0	0	0	0	0	0	0	0	0	0	0	0	0	0	0	0	0	0	0
593.5	0	0	0	0	0	0	0	0	0	0	0	0	0	0	0	0	0	0	0	0	0	0	0	0	0	0	0	0	0	0	0	0	0	0	0	0	0	0	0	0	0	0	0	0	0	0	0	0	0	0	0	0	0	0	0	0	0	0	0	0	0	0	0	0	0	0	0	0	0	0	0	0	0	0
615.3	0	0	0	0	0	0	0	0	0	0	0	0	0	0	0	0	0	0	0	0	0	0	0	0	0	0	0	0	0	0	0	0	0	0	0	0	0	0	0	0	0	0	0	0	0	0	0	0	0	0	0	0	0	0	0	0	0	0	0	0	0	0	0	0	0	0	0	0	0	0	0	0	0	0
637.8	0	0	0	0	0	0	0	0	0	0	0	0	0	0	0	0	0	0	0	0	0	0	0	0	0	0	0	0	0	0	0	0	0	0	0	0	0	0	0	0	0	0	0	0	0	0	0	0	0	0	0	0	0	0	0	0	0	0	0	0	0	0	0	0	0	0	0	0	0	0	0	0	0	0
661.2	0	0	0	0	0	0	0	0	0	0	0	0	0	0	0	0	0	0	0	0	0	0	0	0	0	0	0	0	0	0	0	0	0	0	0	0	0	0	0	0	0	0	0	0	0	0	0	0	0	0	0	0	0	0	0	0	0	0	0	0	0	0	0	0	0	0	0	0	0	0	0	0	0	0
685.4	0	0	0	0	0	0	0	0	0	0	0	0	0	0	0	0	0	0	0	0	0	0	0	0	0	0	0	0	0	0	0	0	0	0	0	0	0	0	0	0	0	0	0	0	0	0	0	0	0	0	0	0	0	0	0	0	0	0	0	0	0	0	0	0	0	0	0	0	0	0	0	0	0	0
710.5	0	0	0	0	0	0	0	0	0	0	0	0	0	0	0	0	0	0	0	0	0	0	0	0	0	0	0	0	0	0	0	0	0	0	0	0	0	0	0	0	0	0	0	0	0	0	0	0	0	0	0	0	0	0	0	0	0	0	0	0	0	0	0	0	0	0	0	0	0	0	0	0	0	0
Scan Up Time(s)	155	155	155	155	155	155	155	155	155	155	155	155	155	155	155	155	155	155	155	155	155	155	155	155	155	155	155	155	155	155	155	155	155	155	155	155	155	155	155	155	155	155	155	155	155	155	155	155	155	155	155	155	155	155	155	155	155	155	155	155	155	155	155	155	155	155	155	155	155	155	155	155	155	155
Retrace Time(s)	10	10	10	10	10	10	10	10	10	10	10	10	10	10	10	10	10	10	10	10	10	10	10	10	10	10	10	10	10	10	10	10	10	10	10	10	10	10	10	10	10	10	10	10	10	10	10	10	10	10	10	10	10	10	10	10	10	10	10	10	10	10	10	10	10	10	10	10	10	10	10	10	10	10
Down Scan First	FALSE	FALSE	FALSE	FALSE	FALSE	FALSE	FALSE	FALSE	FALSE	FALSE	FALSE	FALSE	FALSE	FALSE	FALSE	FALSE	FALSE	FALSE	FALSE	FALSE	FALSE	FALSE	FALSE	FALSE	FALSE	FALSE	FALSE	FALSE	FALSE	FALSE	FALSE	FALSE	FALSE	FALSE	FALSE	FALSE	FALSE	FALSE	FALSE	FALSE	FALSE	FALSE	FALSE	FALSE	FALSE	FALSE	FALSE	FALSE	FALSE	FALSE	FALSE	FALSE	FALSE	FALSE	FALSE	FALSE	FALSE	FALSE	FALSE	FALSE	FALSE	FALSE	FALSE	FALSE	FALSE	FALSE	FALSE	FALSE	FALSE	FALSE	FALSE	FALSE	FALSE	FALSE
Scans Per Sample	1	1	1	1	1	1	1	1	1	1	1	1	1	1	1	1	1	1	1	1	1	1	1	1	1	1	1	1	1	1	1	1	1	1	1	1	1	1	1	1	1	1	1	1	1	1	1	1	1	1	1	1	1	1	1	1	1	1	1	1	1	1	1	1	1	1	1	1	1	1	1	1	1	1
Impactor Type(cm)	0.071	0.071	0.071	0.071	0.071	0.071	0.071	0.071	0.071	0.071	0.071	0.071	0.071	0.071	0.071	0.071	0.071	0.071	0.071	0.071	0.071	0.071	0.071	0.071	0.071	0.071	0.071	0.071	0.071	0.071	0.071	0.071	0.071	0.071	0.071	0.071	0.071	0.071	0.071	0.071	0.071	0.071	0.071	0.071	0.071	0.071	0.071	0.071	0.071	0.071	0.071	0.071	0.071	0.071	0.071	0.071	0.071	0.071	0.071	0.071	0.071	0.071	0.071	0.071	0.071	0.071	0.071	0.071	0.071	0.071	0.071	0.071	0.071	0.071
Sheath Flow(lpm)	3	3	3	3	3	3	3	3	3	3	3	3	3	3	3	3	3	3	3	3	3	3	3	3	3	3	3	3	3	3	3	3	3	3	3	3	3	3	3	3	3	3	3	3	3	3	3	3	3	3	3	3	3	3	3	3	3	3	3	3	3	3	3	3	3	3	3	3	3	3	3	3	3	3
Aerosol Flow(lpm)	1.5	1.5	1.5	1.5	1.5	1.5	1.5	1.5	1.5	1.5	1.5	1.5	1.5	1.5	1.5	1.5	1.5	1.5	1.5	1.5	1.5	1.5	1.5	1.5	1.5	1.5	1.5	1.5	1.5	1.5	1.5	1.5	1.5	1.5	1.5	1.5	1.5	1.5	1.5	1.5	1.5	1.5	1.5	1.5	1.5	1.5	1.5	1.5	1.5	1.5	1.5	1.5	1.5	1.5	1.5	1.5	1.5	1.5	1.5	1.5	1.5	1.5	1.5	1.5	1.5	1.5	1.5	1.5	1.5	1.5	1.5	1.5	1.5	1.5
CPC Inlet Flow(lpm)	1.5	1.5	1.5	1.5	1.5	1.5	1.5	1.5	1.5	1.5	1.5	1.5	1.5	1.5	1.5	1.5	1.5	1.5	1.5	1.5	1.5	1.5	1.5	1.5	1.5	1.5	1.5	1.5	1.5	1.5	1.5	1.5	1.5	1.5	1.5	1.5	1.5	1.5	1.5	1.5	1.5	1.5	1.5	1.5	1.5	1.5	1.5	1.5	1.5	1.5	1.5	1.5	1.5	1.5	1.5	1.5	1.5	1.5	1.5	1.5	1.5	1.5	1.5	1.5	1.5	1.5	1.5	1.5	1.5	1.5	1.5	1.5	1.5	1.5
CPC Sample Flow(lpm)	0.3	0.3	0.3	0.3	0.3	0.3	0.3	0.3	0.3	0.3	0.3	0.3	0.3	0.3	0.3	0.3	0.3	0.3	0.3	0.3	0.3	0.3	0.3	0.3	0.3	0.3	0.3	0.3	0.3	0.3	0.3	0.3	0.3	0.3	0.3	0.3	0.3	0.3	0.3	0.3	0.3	0.3	0.3	0.3	0.3	0.3	0.3	0.3	0.3	0.3	0.3	0.3	0.3	0.3	0.3	0.3	0.3	0.3	0.3	0.3	0.3	0.3	0.3	0.3	0.3	0.3	0.3	0.3	0.3	0.3	0.3	0.3	0.3	0.3
Low Voltage	10.9283	10.9297	10.9297	10.9256	10.9187	10.9362	10.932	10.9293	10.9279	10.9453	10.9289	10.9385	10.9271	10.9477	10.9299	10.934	10.9308	10.9445	10.949	10.9494	10.9316	10.9426	10.9457	10.9444	10.9399	10.9312	10.9449	10.9385	10.9391	10.9377	10.9473	10.9527	10.9486	10.9486	10.94	10.9463	10.9614	10.9573	10.9541	10.9422	10.9436	10.9555	10.9459	10.9569	10.9559	10.9453	10.9573	10.9614	10.9381	10.9751	10.9577	10.9467	10.9663	10.9594	10.9622	10.9718	10.9731	10.9503	10.9681	10.964	10.9626	10.9622	10.9471	10.9681	10.953	10.9544	10.9694	10.964	10.9708	10.9749	10.9694	10.9698	10.9749	10.9626
High Voltage	9055.12	9055.36	9055.36	9054.63	9053.4	9058.37	9057.63	9057.15	9056.9	9061.86	9058.93	9060.64	9060.46	9064.13	9060.95	9061.69	9062.98	9065.42	9064.37	9062.59	9059.42	9061.37	9060.08	9059.83	9060.88	9061.2	9063.64	9060.64	9064.45	9064.2	9065.91	9066.89	9066.16	9066.16	9066.47	9063.89	9066.57	9065.84	9067.13	9063.15	9063.4	9067.38	9065.67	9067.62	9065.59	9061.86	9065.84	9066.57	9062.42	9069	9064.06	9062.1	9063.73	9062.52	9063	9064.71	9064.95	9059.03	9062.19	9061.46	9061.22	9063	9060.32	9062.19	9059.51	9059.76	9062.44	9061.46	9062.68	9063.41	9062.44	9060.65	9063.41	9061.22
Lower Size(nm)	15.9634	15.9634	15.9634	15.9634	15.9634	15.9634	15.9634	15.9634	15.9634	15.9634	15.9634	15.9634	15.9634	15.9634	15.9634	15.9634	15.9634	15.9634	15.9634	15.9634	15.9634	15.9634	15.9634	15.9634	15.9634	15.9634	15.9634	15.9634	15.9634	15.9634	15.9634	15.9634	15.9634	15.9634	15.9634	15.9634	15.9634	15.9634	15.9634	15.9634	15.9634	15.9634	15.9634	15.9634	15.9634	15.9634	15.9634	15.9634	15.9634	15.9634	15.9634	15.9634	15.9634	15.9634	15.9634	15.9634	15.9634	15.9634	15.9634	15.9634	15.9634	15.9634	15.9634	15.9634	15.9634	15.9634	15.9634	15.9634	15.9634	15.9634	15.9634	15.9634	15.9634	15.9634
Upper Size(nm)	723.394	723.394	723.394	723.394	723.394	723.394	723.394	723.394	723.394	723.394	723.394	723.394	723.394	723.394	723.394	723.394	723.394	723.394	723.394	723.394	723.394	723.394	723.394	723.394	723.394	723.394	723.394	723.394	723.394	723.394	723.394	723.394	723.394	723.394	723.394	723.394	723.394	723.394	723.394	723.394	723.394	723.394	723.394	723.394	723.394	723.394	723.394	723.394	723.394	723.394	723.394	723.394	723.394	723.394	723.394	723.394	723.394	723.394	723.394	723.394	723.394	723.394	723.394	723.394	723.394	723.394	723.394	723.394	723.394	723.394	723.394	723.394	723.394	723.394
Density(g/cc)	1	1	1	1	1	1	1	1	1	1	1	1	1	1	1	1	1	1	1	1	1	1	1	1	1	1	1	1	1	1	1	1	1	1	1	1	1	1	1	1	1	1	1	1	1	1	1	1	1	1	1	1	1	1	1	1	1	1	1	1	1	1	1	1	1	1	1	1	1	1	1	1	1	1
Title																																																																										
Status Flag	Conditioner Temperature Error 	Conditioner Temperature Error 	Conditioner Temperature Error 	Conditioner Temperature Error 	Conditioner Temperature Error 	Conditioner Temperature Error 	Conditioner Temperature Error 	Conditioner Temperature Error 	Conditioner Temperature Error 	Conditioner Temperature Error 	Conditioner Temperature Error 	Conditioner Temperature Error 	Conditioner Temperature Error 	Conditioner Temperature Error 	Conditioner Temperature Error 	Conditioner Temperature Error 	Conditioner Temperature Error 	Conditioner Temperature Error 	Conditioner Temperature Error 	Conditioner Temperature Error 	Conditioner Temperature Error 	Conditioner Temperature Error 	Conditioner Temperature Error 	Conditioner Temperature Error 	Conditioner Temperature Error 	Conditioner Temperature Error 	Conditioner Temperature Error 	Conditioner Temperature Error 	Conditioner Temperature Error 	Conditioner Temperature Error 	Conditioner Temperature Error 	Conditioner Temperature Error 	Conditioner Temperature Error 	Conditioner Temperature Error 	Conditioner Temperature Error 	Conditioner Temperature Error 	Conditioner Temperature Error 	Conditioner Temperature Error 	Conditioner Temperature Error 	Conditioner Temperature Error 	Conditioner Temperature Error 	Conditioner Temperature Error 	Conditioner Temperature Error 	Conditioner Temperature Error 	Conditioner Temperature Error 	Conditioner Temperature Error 	Conditioner Temperature Error 	Conditioner Temperature Error 	Conditioner Temperature Error 	Conditioner Temperature Error 	Conditioner Temperature Error 	Conditioner Temperature Error 	Conditioner Temperature Error 	Conditioner Temperature Error 	Conditioner Temperature Error 	Conditioner Temperature Error 	Conditioner Temperature Error 	Conditioner Temperature Error 	Conditioner Temperature Error 	Conditioner Temperature Error 	Conditioner Temperature Error 	Conditioner Temperature Error 	Conditioner Temperature Error 	Conditioner Temperature Error 	Conditioner Temperature Error 	Conditioner Temperature Error 	Conditioner Temperature Error 	Conditioner Temperature Error 	Conditioner Temperature Error 	Conditioner Temperature Error 	Conditioner Temperature Error 	Conditioner Temperature Error 	Conditioner Temperature Error 	Conditioner Temperature Error 
td(s)	0.286	0.286	0.286	0.286	0.286	0.286	0.286	0.286	0.286	0.286	0.286	0.286	0.286	0.286	0.286	0.286	0.286	0.286	0.286	0.286	0.286	0.286	0.286	0.286	0.286	0.286	0.286	0.286	0.286	0.286	0.286	0.286	0.286	0.286	0.286	0.286	0.286	0.286	0.286	0.286	0.286	0.286	0.286	0.286	0.286	0.286	0.286	0.286	0.286	0.286	0.286	0.286	0.286	0.286	0.286	0.286	0.286	0.286	0.286	0.286	0.286	0.286	0.286	0.286	0.286	0.286	0.286	0.286	0.286	0.286	0.286	0.286	0.286	0.286
tf(s)	5.51527	5.51527	5.51527	5.51527	5.51527	5.51527	5.51527	5.51527	5.51527	5.51527	5.51527	5.51527	5.51527	5.51527	5.51527	5.51527	5.51527	5.51527	5.51527	5.51527	5.51527	5.51527	5.51527	5.51527	5.51527	5.51527	5.51527	5.51527	5.51527	5.51527	5.51527	5.51527	5.51527	5.51527	5.51527	5.51527	5.51527	5.51527	5.51527	5.51527	5.51527	5.51527	5.51527	5.51527	5.51527	5.51527	5.51527	5.51527	5.51527	5.51527	5.51527	5.51527	5.51527	5.51527	5.51527	5.51527	5.51527	5.51527	5.51527	5.51527	5.51527	5.51527	5.51527	5.51527	5.51527	5.51527	5.51527	5.51527	5.51527	5.51527	5.51527	5.51527	5.51527	5.51527
D50(nm)	572.466	572.466	572.466	572.466	572.466	572.466	572.466	572.466	572.466	572.466	572.466	572.466	572.466	572.466	572.466	572.466	572.466	572.466	572.466	572.466	572.466	572.466	572.466	572.466	572.466	572.466	572.466	572.466	572.466	572.466	572.466	572.466	572.466	572.466	572.466	572.466	572.466	572.466	572.466	572.466	572.466	572.466	572.466	572.466	572.466	572.466	572.466	572.466	572.466	572.466	572.466	572.466	572.466	572.466	572.466	572.466	572.466	572.466	572.466	572.466	572.466	572.466	572.466	572.466	572.466	572.466	572.466	572.466	572.466	572.466	572.466	572.466	572.466	572.466
Median(nm)	-1.#IND	74.8625	64.3931	76.5759	82.7377	89.3164	94.5428	97.8838	100.173	102.323	104.72	107.303	107.607	109.422	111.139	112.019	112.253	113.882	115.004	115.136	116.074	117.155	118.451	117.969	117.766	118.909	119.109	118.388	119.498	119.425	119.199	119.633	120.098	120.751	120.317	121.713	121.109	120.478	120.789	121.454	121.172	121.469	121.128	121.219	120.685	121.347	122.06	119.805	121.321	121.838	120.359	121.72	121.283	120.701	121.292	121.676	120.943	122.647	121.441	122.703	119.866	122.017	121.895	120.424	120.064	122.434	120.147	121.742	122.28	122.777	119.838	122.238	120.298	118.729
Mean(nm)	-1.#IND	99.4703	80.4436	90.6612	96.0858	99.9311	104.184	106.851	108.844	110.528	112.532	114.963	115.209	116.686	118.256	119.142	119.366	120.922	121.517	121.975	122.606	123.807	124.416	124.414	124.505	125.134	125.422	125.119	125.916	125.972	125.575	126.137	126.351	127.094	126.709	127.806	127.399	126.615	127.172	127.477	127.258	127.721	127.786	127.243	126.944	127.515	127.718	126.488	127.406	127.699	126.705	127.365	127.139	126.875	127.634	127.817	126.788	128.182	128.26	128.038	126.355	128.276	127.167	126.694	126.414	127.993	126.528	127.58	127.477	128.966	126.486	127.465	126.514	126.269
Geo. Mean(nm)	-1.#IND	85.9729	66.233	76.8802	82.6096	87.8159	92.6237	95.6281	97.6734	99.8964	102.181	104.474	104.932	106.572	108.132	108.981	109.455	111.162	111.642	112.027	112.862	114.022	114.641	114.788	114.813	115.527	115.758	115.522	116.414	116.438	115.955	116.54	116.789	117.688	117.069	118.27	117.915	117.2	117.645	118.102	117.63	118.353	118.174	117.817	117.567	118.017	118.211	117.335	117.925	118.066	117.314	117.962	117.795	117.51	118.229	118.379	117.31	118.851	118.677	118.328	117.088	118.742	118.085	117.296	117.066	118.391	116.899	118.226	117.92	119.092	117.66	118.205	117.036	117.104
Mode(nm)	0	42.9351	55.2316	59.3523	71.0497	88.1683	105.545	98.2172	105.545	105.545	113.419	121.881	126.346	126.346	117.574	121.881	130.975	109.411	117.574	126.346	121.881	140.746	126.346	126.346	113.419	121.881	130.975	130.975	135.773	126.346	135.773	135.773	117.574	126.346	126.346	126.346	135.773	126.346	113.419	130.975	126.346	135.773	121.881	135.773	126.346	121.881	121.881	130.975	130.975	126.346	117.574	130.975	140.746	126.346	140.746	135.773	121.881	130.975	113.419	145.902	140.746	126.346	130.975	121.881	126.346	130.975	140.746	135.773	135.773	145.902	130.975	135.773	130.975	113.419
Geo. Std. Dev.	-1.#IND	1.70481	1.87813	1.79849	1.7535	1.6819	1.64171	1.61894	1.61053	1.58289	1.56608	1.56405	1.55491	1.54578	1.54112	1.54047	1.53037	1.52063	1.52366	1.52419	1.51522	1.51427	1.51364	1.5077	1.50899	1.50447	1.50622	1.50446	1.49901	1.50026	1.5037	1.5023	1.50035	1.49324	1.50187	1.49558	1.49419	1.49469	1.49654	1.49141	1.50037	1.48901	1.49802	1.49405	1.49234	1.49621	1.49795	1.48435	1.49494	1.49982	1.49414	1.49289	1.49108	1.49154	1.49137	1.4928	1.4973	1.48961	1.49604	1.50385	1.4903	1.49431	1.48325	1.49396	1.49284	1.49783	1.50151	1.49266	1.50243	1.50502	1.47328	1.48803	1.49735	1.48635
Total Concentration(#/cm)	0	22795.8	44248.3	37148.6	29132.1	33026.5	34178	32784.1	30238.4	30880.8	30763.2	27788.6	26895.2	26109.7	24524.8	22115.4	21571	20144.9	18075.3	17032.5	16153.6	15133	13946.5	12855.5	12155.2	11360.8	10482.8	9957.4	9235.76	8456.47	7350.66	6687	5938.93	5280.95	5125.73	4821.58	4511.59	4166.81	4002.74	3416.93	3101.61	3068.2	2850.65	2615.05	2588.12	2427.63	2246.27	2123.52	1989.26	1768.86	1648.28	1570.85	1415.77	1303.1	1265.28	1185.68	1074.79	1057.19	972.23	889.192	856.954	812.491	768.937	722.375	677.538	627.363	582.857	545.129	513.502	460.061	467.549	441.155	388.787	383.211
Comment																																																																										
